File: UVVIS-Fluor/Sample-1-2/Amostra sem Rodamina-TM.txt
"RawData - Lente direita 029 lote 18 - Shimadzu.txt_162154.spc"
"Wavelength nm."	"T%"
190.00	-0.002
194.00	-0.003
198.00	-0.002
202.00	0.002
206.00	-0.006
210.00	-0.002
214.00	0.005
218.00	-0.006
222.00	-0.003
226.00	-0.005
230.00	0.000
234.00	0.000
238.00	-0.002
242.00	0.017
246.00	-0.008
250.00	-0.006
254.00	-0.005
258.00	0.000
262.00	0.000
266.00	0.009
270.00	-0.003
274.00	-0.006
278.00	-0.006
282.00	-0.015
286.00	0.014
290.00	-0.011
294.00	0.009
298.00	-0.002
302.00	0.015
306.00	-0.024
310.00	0.009
314.00	0.237
318.00	0.084
322.00	0.060
326.00	-0.041
330.00	0.075
334.00	-0.006
338.00	0.024
342.00	0.014
346.00	-0.003
350.00	0.089
354.00	0.191
358.00	0.243
362.00	0.381
366.00	0.589
370.00	0.809
374.00	1.067
378.00	1.421
382.00	1.950
386.00	2.614
390.00	3.899
394.00	5.853
398.00	8.481
402.00	11.868
406.00	16.669
410.00	23.666
414.00	31.593
418.00	38.544
422.00	43.095
426.00	46.008
430.00	48.100
434.00	49.854
438.00	51.540
442.00	53.197
446.00	54.846
450.00	56.367
454.00	57.774
458.00	59.026
462.00	60.205
466.00	61.290
470.00	62.279
474.00	63.133
478.00	63.913
482.00	64.621
486.00	65.501
490.00	66.611
494.00	67.900
498.00	69.292
502.00	70.576
506.00	71.738
510.00	72.742
514.00	73.631
518.00	74.384
522.00	75.041
526.00	75.583
530.00	76.088
534.00	76.530
538.00	76.974
542.00	77.318
546.00	77.658
550.00	78.052
554.00	78.458
558.00	78.874
562.00	79.276
566.00	79.689
570.00	80.058
574.00	80.466
578.00	80.823
582.00	81.250
586.00	81.699
590.00	82.076
594.00	82.448
598.00	82.784
602.00	83.093
606.00	83.365
610.00	83.604
614.00	83.780
618.00	83.969
622.00	84.152
626.00	84.279
630.00	84.375
634.00	84.521
638.00	84.631
642.00	84.712
646.00	84.747
650.00	84.813
654.00	84.888
658.00	84.932
662.00	84.995
666.00	85.027
670.00	85.095
674.00	85.124
678.00	85.168
682.00	85.207
686.00	85.233
690.00	85.251
694.00	85.284
698.00	85.326
702.00	85.309
706.00	85.350
710.00	85.361
714.00	85.378
718.00	85.413
722.00	85.410
726.00	85.452
730.00	85.445
734.00	85.442
738.00	85.439
742.00	85.449
746.00	85.460
750.00	85.463
754.00	85.516
758.00	85.542
762.00	85.493
766.00	85.509
770.00	85.553
774.00	85.547
778.00	85.555
782.00	85.555
786.00	85.585
790.00	85.593
794.00	85.617
798.00	85.603
802.00	85.643
806.00	85.606
810.00	85.594
814.00	85.625
818.00	85.614
822.00	85.623
826.00	85.652
830.00	85.674
834.00	85.660
838.00	85.649
842.00	85.646
846.00	85.638
850.00	85.641
854.00	85.622
858.00	85.619
862.00	85.553
866.00	85.474
870.00	85.442
874.00	85.493
878.00	85.478
882.00	85.437
886.00	85.382
890.00	85.312
894.00	85.236
898.00	85.187
902.00	85.118
906.00	85.146
910.00	85.158
914.00	85.228
918.00	85.287
922.00	85.410
926.00	85.426
930.00	85.480
934.00	85.472
938.00	85.512
942.00	85.481
946.00	85.553
950.00	85.519
954.00	85.451
958.00	85.355
962.00	85.295
966.00	85.229
970.00	85.139
974.00	85.115
978.00	85.103
982.00	85.110
986.00	85.106
990.00	85.146
994.00	85.156
998.00	85.187
1002.00	85.201
1006.00	85.185
1010.00	85.184
1014.00	85.168
1018.00	85.149
1022.00	85.199
1026.00	85.252
1030.00	85.208
1034.00	85.295
1038.00	85.286
1042.00	85.361
1046.00	85.381
1050.00	85.402
1054.00	85.432
1058.00	85.474
1062.00	85.513
1066.00	85.553
1070.00	85.553
1074.00	85.580
1078.00	85.541
1082.00	85.623
1086.00	85.542
1090.00	85.390
1094.00	85.432
1098.00	85.478
1100.00	85.323