File: UVVIS-Fluor/Sample-1-2/Amostra sem Rodamina-ABS.txt
"RawData - Lente direita 029 lote 18 - Shimadzu.txt_162359.spc"
"Wavelength nm."	"Abs."
190.00	3.484
194.00	3.747
198.00	3.897
202.00	3.786
206.00	3.860
210.00	3.965
214.00	3.978
218.00	3.983
222.00	3.876
226.00	3.777
230.00	3.980
234.00	3.911
238.00	3.957
242.00	3.978
246.00	3.958
250.00	3.961
254.00	3.861
258.00	3.906
262.00	3.804
266.00	3.749
270.00	3.861
274.00	3.921
278.00	3.877
282.00	3.881
286.00	3.825
290.00	3.750
294.00	3.757
298.00	3.967
302.00	3.898
306.00	3.765
310.00	3.706
314.00	3.763
318.00	3.584
322.00	3.748
326.00	3.879
330.00	3.219
334.00	3.762
338.00	3.475
342.00	3.760
346.00	3.634
350.00	3.385
354.00	2.799
358.00	2.581
362.00	2.446
366.00	2.245
370.00	2.116
374.00	1.968
378.00	1.833
382.00	1.713
386.00	1.578
390.00	1.407
394.00	1.233
398.00	1.071
402.00	0.925
406.00	0.777
410.00	0.626
414.00	0.500
418.00	0.414
422.00	0.365
426.00	0.337
430.00	0.318
434.00	0.302
438.00	0.288
442.00	0.274
446.00	0.261
450.00	0.249
454.00	0.238
458.00	0.229
462.00	0.220
466.00	0.213
470.00	0.206
474.00	0.200
478.00	0.195
482.00	0.190
486.00	0.184
490.00	0.177
494.00	0.168
498.00	0.159
502.00	0.151
506.00	0.144
510.00	0.138
514.00	0.133
518.00	0.128
522.00	0.125
526.00	0.121
530.00	0.119
534.00	0.116
538.00	0.114
542.00	0.112
546.00	0.110
550.00	0.108
554.00	0.105
558.00	0.103
562.00	0.101
566.00	0.099
570.00	0.096
574.00	0.094
578.00	0.093
582.00	0.090
586.00	0.088
590.00	0.086
594.00	0.084
598.00	0.082
602.00	0.081
606.00	0.079
610.00	0.078
614.00	0.077
618.00	0.076
622.00	0.075
626.00	0.074
630.00	0.074
634.00	0.073
638.00	0.072
642.00	0.072
646.00	0.072
650.00	0.071
654.00	0.071
658.00	0.071
662.00	0.071
666.00	0.070
670.00	0.070
674.00	0.070
678.00	0.070
682.00	0.069
686.00	0.069
690.00	0.069
694.00	0.069
698.00	0.069
702.00	0.069
706.00	0.069
710.00	0.069
714.00	0.069
718.00	0.068
722.00	0.068
726.00	0.068
730.00	0.068
734.00	0.068
738.00	0.068
742.00	0.068
746.00	0.068
750.00	0.068
754.00	0.068
758.00	0.068
762.00	0.068
766.00	0.068
770.00	0.068
774.00	0.068
778.00	0.067
782.00	0.068
786.00	0.067
790.00	0.067
794.00	0.067
798.00	0.067
802.00	0.067
806.00	0.067
810.00	0.067
814.00	0.067
818.00	0.067
822.00	0.067
826.00	0.067
830.00	0.067
834.00	0.067
838.00	0.067
842.00	0.067
846.00	0.067
850.00	0.067
854.00	0.067
858.00	0.067
862.00	0.067
866.00	0.068
870.00	0.068
874.00	0.068
878.00	0.068
882.00	0.068
886.00	0.068
890.00	0.069
894.00	0.069
898.00	0.069
902.00	0.070
906.00	0.070
910.00	0.069
914.00	0.069
918.00	0.069
922.00	0.068
926.00	0.068
930.00	0.068
934.00	0.068
938.00	0.068
942.00	0.068
946.00	0.067
950.00	0.068
954.00	0.068
958.00	0.068
962.00	0.069
966.00	0.069
970.00	0.070
974.00	0.070
978.00	0.070
982.00	0.070
986.00	0.070
990.00	0.070
994.00	0.070
998.00	0.069
1002.00	0.069
1006.00	0.069
1010.00	0.069
1014.00	0.069
1018.00	0.070
1022.00	0.069
1026.00	0.069
1030.00	0.069
1034.00	0.069
1038.00	0.069
1042.00	0.068
1046.00	0.068
1050.00	0.068
1054.00	0.068
1058.00	0.068
1062.00	0.068
1066.00	0.067
1070.00	0.067
1074.00	0.067
1078.00	0.067
1082.00	0.067
1086.00	0.068
1090.00	0.068
1094.00	0.068
1098.00	0.068
1100.00	0.069